File: 2018-04-05_tutorial/examples/BN_(hex)_B_K_Giovanni_Bertoni_100.msa
#FORMAT      : EMSA/MAS Spectral Data File
#VERSION     : 1.0
#DATE        :
#TIME        :
#OWNER       :
#NPOINTS     : 1024
#NCOLUMNS    : 1
#DATATYPE    : Y
#SIGNALTYPE  : EELS
#XPERCHAN    : 0.5
#OFFSET      : 113.5
#XLABEL      :
#XUNITS      : eV
#COMMENT     : File created by HyperSpy version 1.4.dev
#TITLE       : Hexagonal Boron Nitride
#BEAMKV      : 100
#CONVANGLE   : 0.2
#COLLANGLE   : 2.55
#SPECTRUM    : Spectral Data Starts Here
2.09777e+07,
2.92674e+07,
2.72224e+07,
2.53214e+07,
2.35608e+07,
2.19268e+07,
2.03917e+07,
1.89929e+07,
1.77194e+07,
1.64965e+07,
1.53551e+07,
1.43543e+07,
1.33758e+07,
1.25075e+07,
1.16706e+07,
1.09473e+07,
1.02372e+07,
9.59463e+06,
8.99168e+06,
8.43274e+06,
7.926e+06,
7.45502e+06,
6.99305e+06,
6.57308e+06,
6.20537e+06,
5.83502e+06,
5.49897e+06,
5.19275e+06,
4.88712e+06,
4.61366e+06,
4.36646e+06,
4.13778e+06,
3.90496e+06,
3.70149e+06,
3.50417e+06,
3.33376e+06,
3.16571e+06,
3.00774e+06,
2.85493e+06,
2.76811e+06,
3.26746e+06,
4.02349e+06,
2.88664e+06,
3.7799e+06,
7.29286e+06,
6.03717e+06,
4.83617e+06,
5.25732e+06,
5.01159e+06,
4.61777e+06,
4.19583e+06,
4.2744e+06,
5.00811e+06,
4.85414e+06,
4.07521e+06,
3.79016e+06,
3.91461e+06,
4.08945e+06,
4.10369e+06,
4.0888e+06,
4.09773e+06,
4.07643e+06,
3.98371e+06,
3.89273e+06,
3.79382e+06,
3.67917e+06,
3.52649e+06,
3.3657e+06,
3.24014e+06,
3.15225e+06,
3.10087e+06,
3.05018e+06,
2.99063e+06,
2.9249e+06,
2.86529e+06,
2.82526e+06,
2.77729e+06,
2.73162e+06,
2.67437e+06,
2.6068e+06,
2.54604e+06,
2.46864e+06,
2.38351e+06,
2.30229e+06,
2.22096e+06,
2.14853e+06,
2.09332e+06,
2.05154e+06,
2.01307e+06,
1.97193e+06,
1.93092e+06,
1.88626e+06,
1.83755e+06,
1.79246e+06,
1.73998e+06,
1.68633e+06,
1.63843e+06,
1.59841e+06,
1.55079e+06,
1.51859e+06,
1.47652e+06,
1.43206e+06,
1.3968e+06,
1.35492e+06,
1.32407e+06,
1.27992e+06,
1.24458e+06,
1.20509e+06,
1.17065e+06,
1.13535e+06,
1.10824e+06,
1.07753e+06,
1.05356e+06,
1.02612e+06,
1.00111e+06,
970024,
943827,
919687,
898113,
871051,
846025,
829056,
804925,
787766,
762925,
741757,
724627,
704176,
688376,
676302,
659695,
647550,
629824,
613360,
601144,
588003,
575255,
556301,
547741,
532855,
524227,
513315,
503017,
497420,
516425,
692845,
689342,
778335,
1.07292e+06,
1.13646e+06,
961467,
1.00568e+06,
1.09347e+06,
1.02488e+06,
858796,
741177,
733596,
762136,
780062,
781466,
817071,
865035,
902873,
938279,
953166,
949807,
917443,
876195,
828910,
798241,
770084,
763007,
758889,
759449,
761394,
752417,
748652,
738942,
724408,
714986,
700284,
687372,
678422,
672554,
661139,
652207,
642024,
632748,
619292,
610440,
598339,
590565,
579613,
566633,
560423,
550450,
544410,
532010,
524905,
516806,
508559,
502759,
492923,
485072,
476222,
467302,
456645,
450499,
436783,
436076,
422601,
418521,
408318,
404169,
397093,
389771,
383160,
374452,
369953,
367677,
360315,
352758,
348710,
340112,
334835,
327498,
322827,
318187,
313369,
309413,
303063,
298718,
290697,
288460,
288932,
278257,
278312,
271194,
266712,
265443,
256937,
255194,
253652,
247705,
241108,
241823,
239577,
235133,
227288,
226551,
222970,
220607,
220301,
215939,
210370,
209102,
174132,
#ENDOFDATA   : End Of Data and File