File: 2018-04-05_tutorial/examples/BN_(hex)_LowLoss_Giovanni_Bertoni_96.msa
#FORMAT      : EMSA/MAS Spectral Data File
#VERSION     : 1.0
#DATE        :
#TIME        :
#OWNER       :
#NPOINTS     : 1024
#NCOLUMNS    : 1
#DATATYPE    : Y
#SIGNALTYPE  : EELS
#XPERCHAN    : 0.5
#OFFSET      : -61.49999
#XLABEL      :
#XUNITS      : eV
#COMMENT     : File created by HyperSpy version 1.4.dev
#TITLE       : Hexagonal Boron Nitride
#BEAMKV      : 300.0
#CONVANGLE   : 0.2
#COLLANGLE   : 2.55
#SPECTRUM    : Spectral Data Starts Here
-27.8947,
-31.7544,
4.035088,
-11.0526,
30,
2.631579,
1.052632,
11.4035,
-2.982456,
5.789474,
-16.3158,
-1.754386,
46.3158,
39.2983,
-16.6667,
-4.210526,
-11.4035,
4.385965,
-11.579,
-9.649123,
-13.6842,
3.684211,
11.9298,
-1.228070,
40.3509,
46.8421,
17.0175,
143.509,
263.509,
2545.09,
36136.5,
181442,
17106.3,
3935.09,
4762.28,
7099.65,
4097.72,
2780.88,
3366.49,
5065.44,
8193.51,
11272.5,
15997.2,
21116.7,
21878.4,
17541.6,
13165.8,
9970.18,
8445.26,
7620.35,
7048.07,
5998.95,
5286.14,
5278.42,
5657.37,
5949.82,
6059.82,
5884.91,
5556.32,
5028.42,
4458.25,
4034.91,
3693.16,
3390.53,
3100.35,
2777.54,
2524.39,
2461.58,
2254.39,
2130.53,
2060,
1898.6,
1734.39,
1608.6,
1568.77,
1361.05,
1256.49,
1196.32,
1111.75,
1109.65,
928.07,
885.965,
789.649,
786.842,
719.825,
672.632,
633.333,
584.737,
541.228,
501.754,
456.842,
431.228,
376.842,
392.983,
369.649,
336.14,
293.333,
277.719,
264.035,
257.193,
273.333,
161.228,
158.07,
199.825,
164.561,
162.982,
159.123,
141.754,
100.702,
154.737,
87.5439,
114.035,
144.21,
104.21,
146.14,
88.421,
84.0351,
106.842,
107.017,
73.3333,
92.2807,
94.9123,
91.2281,
70,
60.8772,
51.5789,
117.193,
55.9649,
96.1403,
120,
145.79,
153.158,
123.158,
142.281,
74.0351,
101.93,
106.316,
94.9123,
77.7193,
117.368,
55.0877,
95.0877,
76.1403,
88.9474,
83.6842,
67.5439,
90.7018,
74.0351,
90,
80.7018,
55.0877,
110,
82.9825,
40.5263,
52.6316,
87.0175,
64.2105,
85.2632,
39.1228,
73.3333,
54.386,
70,
74.386,
49.2983,
58.2456,
75.2632,
44.5614,
22.2807,
87.3684,
21.5789,
35.4386,
16.4912,
33.1579,
65.9649,
46.3158,
55.2632,
21.9298,
41.7544,
15.2632,
39.2983,
88.421,
54.2105,
-14.7368,
22.6316,
23.5088,
41.0526,
48.9474,
37.5439,
18.2456,
20,
34.5614,
-1.403509,
21.5789,
7.192983,
20.3509,
46.1403,
-11.9298,
-13.8597,
7.368421,
16.8421,
11.7544,
11.579,
-30.5263,
41.5789,
7.017544,
-13.1579,
20.1754,
17.193,
8.596491,
7.017544,
34.9123,
18.2456,
13.1579,
33.3333,
27.7193,
11.2281,
70,
8.596491,
51.4035,
9.824561,
9.298246,
30.3509,
24.5614,
5.614035,
15.2632,
16.1404,
42.4561,
-4.736842,
32.807,
15.7895,
38.7719,
-1.228070,
-11.9298,
22.4561,
20.1754,
36.8421,
14.2105,
47.5439,
59.2983,
48.9474,
46.8421,
3.508772,
30.5263,
17.3684,
-4.210526,
38.7719,
25.614,
-2.807018,
-0.350877,
6.140351,
36.3158,
17.5439,
5.964912,
-7.543860,
6.140351,
38.0702,
45.0877,
#ENDOFDATA   : End Of Data and File